# Energy [keV] Efficiency
0.0000 0.0000
0.0200 0.0000
0.0400 0.0000
0.0601 0.0000
0.0801 0.0000
0.1001 0.0000
0.1201 0.0000
0.1401 0.0000
0.1602 0.0000
0.1802 0.0000
0.2002 0.0000
0.2202 0.0000
0.2402 0.0000
0.2603 0.0000
0.2803 0.0000
0.3003 0.0000
0.3203 0.0000
0.3403 0.0000
0.3604 0.0000
0.3804 0.0000
0.4004 0.0000
0.4204 0.0000
0.4404 0.0000
0.4605 0.0000
0.4805 0.0000
0.5005 0.0000
0.5205 0.0000
0.5405 0.0000
0.5606 0.0000
0.5806 0.0000
0.6006 0.0000
0.6206 0.0000
0.6406 0.0000
0.6607 0.0000
0.6807 0.0012
0.7007 0.0051
0.7207 0.0094
0.7407 0.0140
0.7608 0.0190
0.7808 0.0243
0.8008 0.0300
0.8208 0.0361
0.8408 0.0425
0.8609 0.0493
0.8809 0.0565
0.9009 0.0640
0.9209 0.0719
0.9409 0.0801
0.9610 0.0888
0.9810 0.0978
1.0010 0.1072
1.0210 0.1169
1.0410 0.1270
1.0611 0.1375
1.0811 0.1484
1.1011 0.1597
1.1211 0.1714
1.1411 0.1834
1.1612 0.1958
1.1812 0.2086
1.2012 0.2218
1.2212 0.2354
1.2412 0.2493
1.2613 0.2637
1.2813 0.2784
1.3013 0.2935
1.3213 0.3089
1.3413 0.3245
1.3614 0.3403
1.3814 0.3564
1.4014 0.3726
1.4214 0.3889
1.4414 0.4052
1.4615 0.4216
1.4815 0.4380
1.5015 0.4544
1.5215 0.4707
1.5415 0.4869
1.5616 0.5029
1.5816 0.5187
1.6016 0.5343
1.6216 0.5497
1.6416 0.5648
1.6617 0.5795
1.6817 0.5938
1.7017 0.6078
1.7217 0.6213
1.7417 0.6343
1.7618 0.6468
1.7818 0.6587
1.8018 0.6702
1.8218 0.6811
1.8418 0.6916
1.8619 0.7016
1.8819 0.7112
1.9019 0.7203
1.9219 0.7289
1.9419 0.7372
1.9620 0.7451
1.9820 0.7526
2.0020 0.7598
2.0220 0.7665
2.0420 0.7730
2.0621 0.7791
2.0821 0.7850
2.1021 0.7905
2.1221 0.7958
2.1421 0.8008
2.1622 0.8056
2.1822 0.8101
2.2022 0.8144
2.2222 0.8186
2.2422 0.8225
2.2623 0.8263
2.2823 0.8299
2.3023 0.8333
2.3223 0.8366
2.3423 0.8398
2.3624 0.8428
2.3824 0.8457
2.4024 0.8484
2.4224 0.8510
2.4424 0.8535
2.4625 0.8559
2.4825 0.8581
2.5025 0.8603
2.5225 0.8624
2.5425 0.8643
2.5626 0.8662
2.5826 0.8679
2.6026 0.8696
2.6226 0.8713
2.6426 0.8728
2.6627 0.8743
2.6827 0.8757
2.7027 0.8770
2.7227 0.8783
2.7427 0.8796
2.7628 0.8808
2.7828 0.8820
2.8028 0.8831
2.8228 0.8842
2.8428 0.8852
2.8629 0.8862
2.8829 0.8872
2.9029 0.8881
2.9229 0.8891
2.9429 0.8899
2.9630 0.8908
2.9830 0.8916
3.0030 0.8924
3.0230 0.8932
3.0430 0.8939
3.0631 0.8946
3.0831 0.8953
3.1031 0.8960
3.1231 0.8966
3.1431 0.8972
3.1632 0.8978
3.1832 0.8984
3.2032 0.8990
3.2232 0.8995
3.2432 0.9001
3.2633 0.9006
3.2833 0.9011
3.3033 0.9016
3.3233 0.9021
3.3433 0.9026
3.3634 0.9030
3.3834 0.9035
3.4034 0.9039
3.4234 0.9044
3.4434 0.9048
3.4635 0.9052
3.4835 0.9056
3.5035 0.9060
3.5235 0.9064
3.5435 0.9068
3.5636 0.9071
3.5836 0.9075
3.6036 0.9079
3.6236 0.9082
3.6436 0.9086
3.6637 0.9089
3.6837 0.9093
3.7037 0.9096
3.7237 0.9099
3.7437 0.9103
3.7638 0.9106
3.7838 0.9109
3.8038 0.9113
3.8238 0.9116
3.8438 0.9119
3.8639 0.9122
3.8839 0.9125
3.9039 0.9128
3.9239 0.9131
3.9439 0.9134
3.9640 0.9137
3.9840 0.9140
4.0040 0.9143
4.0240 0.9146
4.0440 0.9149
4.0641 0.9152
4.0841 0.9155
4.1041 0.9158
4.1241 0.9160
4.1441 0.9163
4.1642 0.9166
4.1842 0.9169
4.2042 0.9171
4.2242 0.9174
4.2442 0.9177
4.2643 0.9179
4.2843 0.9182
4.3043 0.9184
4.3243 0.9187
4.3443 0.9189
4.3644 0.9192
4.3844 0.9194
4.4044 0.9196
4.4244 0.9199
4.4444 0.9201
4.4645 0.9203
4.4845 0.9206
4.5045 0.9208
4.5245 0.9210
4.5445 0.9212
4.5646 0.9215
4.5846 0.9217
4.6046 0.9219
4.6246 0.9221
4.6446 0.9223
4.6647 0.9225
4.6847 0.9227
4.7047 0.9229
4.7247 0.9231
4.7447 0.9233
4.7648 0.9235
4.7848 0.9237
4.8048 0.9239
4.8248 0.9241
4.8448 0.9242
4.8649 0.9244
4.8849 0.9246
4.9049 0.9248
4.9249 0.9250
4.9449 0.9251
4.9650 0.9253
4.9850 0.9255
5.0050 0.9256
5.0250 0.9258
5.0450 0.9259
5.0651 0.9261
5.0851 0.9263
5.1051 0.9264
5.1251 0.9266
5.1451 0.9267
5.1652 0.9269
5.1852 0.9270
5.2052 0.9271
5.2252 0.9273
5.2452 0.9274
5.2653 0.9276
5.2853 0.9277
5.3053 0.9278
5.3253 0.9280
5.3453 0.9281
5.3654 0.9282
5.3854 0.9284
5.4054 0.9285
5.4254 0.9286
5.4454 0.9287
5.4655 0.9288
5.4855 0.9290
5.5055 0.9291
5.5255 0.9292
5.5455 0.9293
5.5656 0.9294
5.5856 0.9295
5.6056 0.9296
5.6256 0.9297
5.6456 0.9298
5.6657 0.9299
5.6857 0.9300
5.7057 0.9301
5.7257 0.9302
5.7457 0.9303
5.7658 0.9304
5.7858 0.9305
5.8058 0.9306
5.8258 0.9307
5.8458 0.9307
5.8659 0.9308
5.8859 0.9309
5.9059 0.9310
5.9259 0.9311
5.9459 0.9311
5.9660 0.9312
5.9860 0.9313
6.0060 0.9314
6.0260 0.9314
6.0460 0.9315
6.0661 0.9316
6.0861 0.9316
6.1061 0.9317
6.1261 0.9318
6.1461 0.9318
6.1662 0.9319
6.1862 0.9319
6.2062 0.9320
6.2262 0.9321
6.2462 0.9321
6.2663 0.9322
6.2863 0.9322
6.3063 0.9323
6.3263 0.9323
6.3463 0.9324
6.3664 0.9324
6.3864 0.9325
6.4064 0.9326
6.4264 0.9326
6.4464 0.9327
6.4665 0.9327
6.4865 0.9327
6.5065 0.9328
6.5265 0.9328
6.5465 0.9329
6.5666 0.9329
6.5866 0.9330
6.6066 0.9330
6.6266 0.9331
6.6466 0.9331
6.6667 0.9331
6.6867 0.9332
6.7067 0.9332
6.7267 0.9332
6.7467 0.9333
6.7668 0.9333
6.7868 0.9334
6.8068 0.9334
6.8268 0.9334
6.8468 0.9335
6.8669 0.9335
6.8869 0.9335
6.9069 0.9336
6.9269 0.9336
6.9469 0.9336
6.9670 0.9336
6.9870 0.9337
7.0070 0.9337
7.0270 0.9337
7.0470 0.9337
7.0671 0.9338
7.0871 0.9338
7.1071 0.9338
7.1271 0.9338
7.1471 0.9339
7.1672 0.9339
7.1872 0.9339
7.2072 0.9339
7.2272 0.9340
7.2472 0.9340
7.2673 0.9340
7.2873 0.9340
7.3073 0.9340
7.3273 0.9341
7.3473 0.9341
7.3674 0.9341
7.3874 0.9341
7.4074 0.9341
7.4274 0.9342
7.4474 0.9342
7.4675 0.9342
7.4875 0.9342
7.5075 0.9342
7.5275 0.9342
7.5475 0.9343
7.5676 0.9343
7.5876 0.9343
7.6076 0.9343
7.6276 0.9343
7.6476 0.9343
7.6677 0.9344
7.6877 0.9344
7.7077 0.9344
7.7277 0.9344
7.7477 0.9344
7.7678 0.9344
7.7878 0.9344
7.8078 0.9345
7.8278 0.9345
7.8478 0.9345
7.8679 0.9345
7.8879 0.9345
7.9079 0.9345
7.9279 0.9345
7.9479 0.9345
7.9680 0.9345
7.9880 0.9346
8.0080 0.9346
8.0280 0.9346
8.0480 0.9346
8.0681 0.9346
8.0881 0.9346
8.1081 0.9346
8.1281 0.9346
8.1481 0.9346
8.1682 0.9346
8.1882 0.9346
8.2082 0.9347
8.2282 0.9347
8.2482 0.9347
8.2683 0.9347
8.2883 0.9347
8.3083 0.9347
8.3283 0.9347
8.3483 0.9347
8.3684 0.9347
8.3884 0.9347
8.4084 0.9347
8.4284 0.9347
8.4484 0.9347
8.4685 0.9347
8.4885 0.9347
8.5085 0.9347
8.5285 0.9347
8.5485 0.9347
8.5686 0.9347
8.5886 0.9347
8.6086 0.9347
8.6286 0.9347
8.6486 0.9348
8.6687 0.9348
8.6887 0.9348
8.7087 0.9348
8.7287 0.9348
8.7487 0.9348
8.7688 0.9348
8.7888 0.9348
8.8088 0.9348
8.8288 0.9348
8.8488 0.9348
8.8689 0.9348
8.8889 0.9348
8.9089 0.9348
8.9289 0.9348
8.9489 0.9348
8.9690 0.9348
8.9890 0.9348
9.0090 0.9348
9.0290 0.9348
9.0490 0.9348
9.0691 0.9348
9.0891 0.9348
9.1091 0.9348
9.1291 0.9348
9.1491 0.9347
9.1692 0.9347
9.1892 0.9347
9.2092 0.9347
9.2292 0.9347
9.2492 0.9347
9.2693 0.9347
9.2893 0.9347
9.3093 0.9347
9.3293 0.9347
9.3493 0.9347
9.3694 0.9347
9.3894 0.9347
9.4094 0.9346
9.4294 0.9346
9.4494 0.9346
9.4695 0.9346
9.4895 0.9346
9.5095 0.9346
9.5295 0.9345
9.5495 0.9345
9.5696 0.9345
9.5896 0.9345
9.6096 0.9344
9.6296 0.9344
9.6496 0.9344
9.6697 0.9343
9.6897 0.9343
9.7097 0.9343
9.7297 0.9342
9.7497 0.9342
9.7698 0.9341
9.7898 0.9341
9.8098 0.9340
9.8298 0.9340
9.8498 0.9339
9.8699 0.9339
9.8899 0.9338
9.9099 0.9337
9.9299 0.9337
9.9499 0.9336
9.9700 0.9335
9.9900 0.9335
10.0100 0.9334
10.0300 0.9333
10.0501 0.9332
10.0701 0.9332
10.0901 0.9331
10.1101 0.9330
10.1301 0.9329
10.1502 0.9328
10.1702 0.9327
10.1902 0.9326
10.2102 0.9325
10.2302 0.9324
10.2503 0.9323
10.2703 0.9322
10.2903 0.9321
10.3103 0.9320
10.3303 0.9319
10.3504 0.9318
10.3704 0.9317
10.3904 0.9316
10.4104 0.9314
10.4304 0.9313
10.4505 0.9312
10.4705 0.9310
10.4905 0.9309
10.5105 0.9307
10.5305 0.9305
10.5506 0.9304
10.5706 0.9302
10.5906 0.9300
10.6106 0.9298
10.6306 0.9296
10.6507 0.9293
10.6707 0.9291
10.6907 0.9289
10.7107 0.9286
10.7307 0.9283
10.7508 0.9281
10.7708 0.9278
10.7908 0.9275
10.8108 0.9271
10.8308 0.9268
10.8509 0.9265
10.8709 0.9261
10.8909 0.9258
10.9109 0.9254
10.9309 0.9250
10.9510 0.9246
10.9710 0.9242
10.9910 0.9238
11.0110 0.9233
11.0310 0.9229
11.0511 0.9224
11.0711 0.9220
11.0911 0.9215
11.1111 0.9210
11.1311 0.9205
11.1512 0.9200
11.1712 0.9194
11.1912 0.9189
11.2112 0.9184
11.2312 0.9178
11.2513 0.9173
11.2713 0.9167
11.2913 0.9161
11.3113 0.9155
11.3313 0.9149
11.3514 0.9143
11.3714 0.9136
11.3914 0.9130
11.4114 0.9123
11.4314 0.9116
11.4515 0.9109
11.4715 0.9102
11.4915 0.9095
11.5115 0.9087
11.5315 0.9079
11.5516 0.9071
11.5716 0.9063
11.5916 0.9054
11.6116 0.9046
11.6316 0.9036
11.6517 0.9027
11.6717 0.9018
11.6917 0.9008
11.7117 0.8997
11.7317 0.8987
11.7518 0.8976
11.7718 0.8965
11.7918 0.8954
11.8118 0.8942
11.8318 0.8930
11.8519 0.8917
11.8719 0.8905
11.8919 0.8892
11.9119 0.8878
11.9319 0.8865
11.9520 0.8851
11.9720 0.8836
11.9920 0.8822
12.0120 0.8807
12.0320 0.8792
12.0521 0.8776
12.0721 0.8761
12.0921 0.8745
12.1121 0.8728
12.1321 0.8712
12.1522 0.8695
12.1722 0.8678
12.1922 0.8660
12.2122 0.8643
12.2322 0.8625
12.2523 0.8607
12.2723 0.8588
12.2923 0.8569
12.3123 0.8550
12.3323 0.8531
12.3524 0.8511
12.3724 0.8492
12.3924 0.8471
12.4124 0.8451
12.4324 0.8430
12.4525 0.8410
12.4725 0.8388
12.4925 0.8367
12.5125 0.8345
12.5325 0.8323
12.5526 0.8301
12.5726 0.8279
12.5926 0.8256
12.6126 0.8233
12.6326 0.8210
12.6527 0.8186
12.6727 0.8162
12.6927 0.8138
12.7127 0.8114
12.7327 0.8089
12.7528 0.8064
12.7728 0.8039
12.7928 0.8014
12.8128 0.7988
12.8328 0.7962
12.8529 0.7936
12.8729 0.7909
12.8929 0.7882
12.9129 0.7855
12.9329 0.7828
12.9530 0.7800
12.9730 0.7772
12.9930 0.7743
13.0130 0.7714
13.0330 0.7685
13.0531 0.7656
13.0731 0.7626
13.0931 0.7596
13.1131 0.7565
13.1331 0.7534
13.1532 0.7503
13.1732 0.7471
13.1932 0.7439
13.2132 0.7407
13.2332 0.7374
13.2533 0.7340
13.2733 0.7307
13.2933 0.7272
13.3133 0.7238
13.3333 0.7203
13.3534 0.7168
13.3734 0.7132
13.3934 0.7096
13.4134 0.7060
13.4334 0.7024
13.4535 0.6987
13.4735 0.6950
13.4935 0.6912
13.5135 0.6875
13.5335 0.6837
13.5536 0.6799
13.5736 0.6761
13.5936 0.6723
13.6136 0.6684
13.6336 0.6646
13.6537 0.6607
13.6737 0.6568
13.6937 0.6529
13.7137 0.6490
13.7337 0.6451
13.7538 0.6412
13.7738 0.6372
13.7938 0.6333
13.8138 0.6294
13.8338 0.6254
13.8539 0.6215
13.8739 0.6175
13.8939 0.6135
13.9139 0.6096
13.9339 0.6056
13.9540 0.6016
13.9740 0.5976
13.9940 0.5935
14.0140 0.5895
14.0340 0.5855
14.0541 0.5814
14.0741 0.5773
14.0941 0.5732
14.1141 0.5691
14.1341 0.5650
14.1542 0.5609
14.1742 0.5567
14.1942 0.5525
14.2142 0.5483
14.2342 0.5441
14.2543 0.5399
14.2743 0.5356
14.2943 0.5313
14.3143 0.5270
14.3343 0.5227
14.3544 0.5184
14.3744 0.5141
14.3944 0.5097
14.4144 0.5054
14.4344 0.5010
14.4545 0.4966
14.4745 0.4922
14.4945 0.4879
14.5145 0.4835
14.5345 0.4791
14.5546 0.4747
14.5746 0.4703
14.5946 0.4660
14.6146 0.4616
14.6346 0.4572
14.6547 0.4529
14.6747 0.4485
14.6947 0.4442
14.7147 0.4399
14.7347 0.4356
14.7548 0.4313
14.7748 0.4271
14.7948 0.4228
14.8148 0.4186
14.8348 0.4144
14.8549 0.4102
14.8749 0.4060
14.8949 0.4019
14.9149 0.3977
14.9349 0.3936
14.9550 0.3895
14.9750 0.3855
14.9950 0.3814
15.0150 0.3774
15.0350 0.3734
15.0551 0.3694
15.0751 0.3654
15.0951 0.3615
15.1151 0.3576
15.1351 0.3537
15.1552 0.3498
15.1752 0.3459
15.1952 0.3421
15.2152 0.3383
15.2352 0.3345
15.2553 0.3307
15.2753 0.3270
15.2953 0.3233
15.3153 0.3196
15.3353 0.3159
15.3554 0.3123
15.3754 0.3086
15.3954 0.3050
15.4154 0.3015
15.4354 0.2979
15.4555 0.2944
15.4755 0.2909
15.4955 0.2874
15.5155 0.2839
15.5355 0.2805
15.5556 0.2771
15.5756 0.2737
15.5956 0.2703
15.6156 0.2669
15.6356 0.2636
15.6557 0.2603
15.6757 0.2570
15.6957 0.2538
15.7157 0.2505
15.7357 0.2473
15.7558 0.2441
15.7758 0.2409
15.7958 0.2378
15.8158 0.2346
15.8358 0.2315
15.8559 0.2284
15.8759 0.2254
15.8959 0.2223
15.9159 0.2193
15.9359 0.2163
15.9560 0.2133
15.9760 0.2104
15.9960 0.2075
16.0160 0.2046
16.0360 0.2017
16.0561 0.1988
16.0761 0.1960
16.0961 0.1932
16.1161 0.1904
16.1361 0.1876
16.1562 0.1849
16.1762 0.1821
16.1962 0.1794
16.2162 0.1768
16.2362 0.1741
16.2563 0.1715
16.2763 0.1689
16.2963 0.1663
16.3163 0.1637
16.3363 0.1612
16.3564 0.1587
16.3764 0.1562
16.3964 0.1538
16.4164 0.1513
16.4364 0.1489
16.4565 0.1466
16.4765 0.1442
16.4965 0.1419
16.5165 0.1396
16.5365 0.1373
16.5566 0.1351
16.5766 0.1328
16.5966 0.1306
16.6166 0.1285
16.6366 0.1263
16.6567 0.1242
16.6767 0.1221
16.6967 0.1201
16.7167 0.1181
16.7367 0.1161
16.7568 0.1141
16.7768 0.1122
16.7968 0.1102
16.8168 0.1084
16.8368 0.1065
16.8569 0.1047
16.8769 0.1029
16.8969 0.1011
16.9169 0.0993
16.9369 0.0976
16.9570 0.0959
16.9770 0.0942
16.9970 0.0926
17.0170 0.0910
17.0370 0.0894
17.0571 0.0878
17.0771 0.0862
17.0971 0.0847
17.1171 0.0831
17.1371 0.0816
17.1572 0.0802
17.1772 0.0787
17.1972 0.0773
17.2172 0.0758
17.2372 0.0744
17.2573 0.0731
17.2773 0.0717
17.2973 0.0703
17.3173 0.0690
17.3373 0.0677
17.3574 0.0664
17.3774 0.0651
17.3974 0.0639
17.4174 0.0626
17.4374 0.0614
17.4575 0.0602
17.4775 0.0590
17.4975 0.0578
17.5175 0.0567
17.5375 0.0555
17.5576 0.0544
17.5776 0.0533
17.5976 0.0523
17.6176 0.0512
17.6376 0.0502
17.6577 0.0492
17.6777 0.0482
17.6977 0.0472
17.7177 0.0462
17.7377 0.0453
17.7578 0.0444
17.7778 0.0435
17.7978 0.0426
17.8178 0.0417
17.8378 0.0409
17.8579 0.0400
17.8779 0.0392
17.8979 0.0384
17.9179 0.0377
17.9379 0.0369
17.9580 0.0362
17.9780 0.0354
17.9980 0.0347
18.0180 0.0340
18.0380 0.0333
18.0581 0.0327
18.0781 0.0320
18.0981 0.0314
18.1181 0.0308
18.1381 0.0301
18.1582 0.0295
18.1782 0.0289
18.1982 0.0284
18.2182 0.0278
18.2382 0.0272
18.2583 0.0267
18.2783 0.0261
18.2983 0.0256
18.3183 0.0251
18.3383 0.0246
18.3584 0.0241
18.3784 0.0236
18.3984 0.0231
18.4184 0.0226
18.4384 0.0221
18.4585 0.0217
18.4785 0.0212
18.4985 0.0207
18.5185 0.0203
18.5385 0.0199
18.5586 0.0194
18.5786 0.0190
18.5986 0.0186
18.6186 0.0182
18.6386 0.0178
18.6587 0.0174
18.6787 0.0170
18.6987 0.0166
18.7187 0.0162
18.7387 0.0159
18.7588 0.0155
18.7788 0.0151
18.7988 0.0148
18.8188 0.0144
18.8388 0.0141
18.8589 0.0137
18.8789 0.0134
18.8989 0.0131
18.9189 0.0127
18.9389 0.0124
18.9590 0.0121
18.9790 0.0118
18.9990 0.0115
19.0190 0.0112
19.0390 0.0109
19.0591 0.0106
19.0791 0.0103
19.0991 0.0100
19.1191 0.0098
19.1391 0.0095
19.1592 0.0093
19.1792 0.0090
19.1992 0.0088
19.2192 0.0085
19.2392 0.0083
19.2593 0.0081
19.2793 0.0079
19.2993 0.0077
19.3193 0.0075
19.3393 0.0073
19.3594 0.0071
19.3794 0.0070
19.3994 0.0068
19.4194 0.0066
19.4394 0.0065
19.4595 0.0063
19.4795 0.0062
19.4995 0.0060
19.5195 0.0059
19.5395 0.0057
19.5596 0.0056
19.5796 0.0055
19.5996 0.0054
19.6196 0.0053
19.6396 0.0051
19.6597 0.0050
19.6797 0.0049
19.6997 0.0048
19.7197 0.0047
19.7397 0.0046
19.7598 0.0045
19.7798 0.0044
19.7998 0.0043
19.8198 0.0042
19.8398 0.0041
19.8599 0.0040
19.8799 0.0039
19.8999 0.0038
19.9199 0.0037
19.9399 0.0036
19.9600 0.0035
19.9800 0.0034
20.0000 0.0033
